Analog 7 (V),Error (V),High Gain (mV),Voltage 10kOhm,Current 1Ohm (mA)
0.0001,0.00018,-0.00362,0.00372,0.00035
0.3082,0.00022,0.02482,0.28338,0.0262
0.6293,0.00022,0.05476,0.57454,0.05342
1.0533,0.00019,0.09411,0.95919,0.08919
1.3614,0.0002,0.12288,1.23852,0.11535
1.6823,0.00018,0.15287,1.52943,0.14261
2.3121,0.00018,0.21206,2.10004,0.19642
2.6333,0.00019,0.24181,2.39149,0.22346
2.9539,0.00017,0.27148,2.68242,0.25044
3.2752,0.00021,0.30155,2.97365,0.27777
